Sn,Bi,In,Ti,UTS(MPa)
92.7,3,2.5,0.3,0
92.6,2.5,3.3,0.1,0
92.9,3,2.5,0.1,0
92.4,2.5,3.4,0.2,0
92.5,2.5,3.4,0.1,0
91.9,3,3.5,0.1,0
91.5,3,3.5,0.5,0
91.7,3,3.5,0.3,0
92.5,3,2.5,0.5,0
90.9,4,3.5,0.1,1
91.7,4,2.5,0.3,1
91.5,4,2.5,0.5,1
90.7,4,3.5,0.3,1
90.9,5,2.5,0.1,1
90.5,4,3.5,0.5,1
89.7,5,3.5,0.3,1
89.5,5,3.5,0.5,1
89.9,5,3.5,0.1,1
90.7,5,2.5,0.3,1
90.5,5,2.5,0.5,1